# factor ===  1.0000
# The first   moment of phonon frequencies <w>  :         117.90 [cm^-1]    3.57 [THz]
# The second  moment of phonon frequencies <w^2>:       17317.66 [cm^-2]   15.90[THz^2]
# Debye temperature via the first   moment of phonon frequencies:     226.18[ K]
# Debye_{\infty}    via the second  moment of phonon frequencies:     244.45[ K]
    3.00      218.38      0.00121331      0.00121331
    6.00      186.58      0.01556293      0.01556293
    9.00      156.19      0.08954118      0.08954118
   12.00      147.72      0.25089753      0.25089753
   15.00      150.23      0.46588752      0.46588752
   20.00      158.96      0.84278981      0.84288109
   30.00      185.13      1.50567312      1.50575827
   40.00      206.13      2.10481690      2.10485872
   50.00      220.11      2.67183059      2.67190222
   60.00      229.27      3.18095072      3.18102391
   70.00      235.57      3.61491384      3.61493814
   80.00      240.22      3.97373887      3.97375143
   90.00      243.91      4.26641414      4.26647142
